File: EC-MS Data/Graphite vs Li in EC-Free + CO2/Raw EC/EC098_EC_Free_CO2_02_CV_C01.mpt
EC-Lab ASCII FILE
Nb header lines : 64

Cyclic Voltammetry

Run on channel : 1 (SN 39219)
User :
CE vs. WE compliance from -10 V to 10 V
Electrode connection : standard
Ewe ctrl range : min = 0.00 V, max = 5.00 V
Safety Limits :
	Do not start on E overload
Acquisition started on : 10/18/2022 11:10:26.788
Technique started on : 10/18/2022 11:50:26.939
Loaded Setting File :  D:\EC-Lab\Faraday\Graphite vs Li\EC096\EC096 LP57 + CO2.mps
Saved on :
	File : EC098_EC_Free_CO2_02_CV_C01.mpr
	Directory : D:\EC-Lab\Faraday\Graphite vs Li\EC098\
	Host : 192.109.209.130
Device : SP-150 (SN 1485)
Address : 192.109.209.135
EC-Lab for windows v11.36 (software)
Internet server v11.36 (firmware)
Command interpretor v11.36 (firmware)
Electrode material : Au/Pd
Initial state :
Electrolyte : NaCl (0.2M)
Comments : Fe(CN)63-/Fe(CN)64- 5.10-3 M
Reference electrode : SCE Saturated Calomel Electrode (0.241 V)
Electrode surface area : 0.001 cm²
Characteristic mass : 0.001 g
Equivalent Weight : 0.000 g/eq.
Density : 0.000 g/cm3
Text export
   Mode : Standard
   Time format : Elapsed
Cycle Definition : Charge/Discharge alternance
Ei (V)              0.000
vs.                 Eoc
dE/dt               1.000
dE/dt unit          mV/s
E1 (V)              0.010
vs.                 Ref
Step percent        50
N                   10
E range min (V)     0.000
E range max (V)     5.000
I Range             Auto
I Range min         Unset
I Range max         Unset
I Range init        Unset
Bandwidth           4
E2 (V)              1.500
vs.                 Ref
nc cycles           3
Reverse Scan        1
Ef (V)              0.000
vs.                 Eoc

Modify on : 10/18/2022 11:10
No text export
nc cycles           2

mode	ox/red	error	control changes	counter inc.	time/s	control/V	Ewe/V	<I>/mA	cycle number	(Q-Qo)/C	I Range	P/W
2	1	0	0	0	2400.15	2.71673	2.71621	0.000331424	1	0.0000000E+000	14	9.00216e-07
2	1	0	1	0	2484.72	2.63216	2.6316	0.000242782	1	2.51366e-05	14	6.38904e-07
2	1	0	1	0	2569.74	2.54714	2.54657	0.000132491	1	3.9528e-05	14	3.37397e-07
2	1	0	1	0	2654.76	2.46211	2.46161	2.66659e-05	1	4.48493e-05	14	6.56411e-08
2	0	0	1	0	2739.78	2.37709	2.37662	-8.13069e-05	1	4.11359e-05	14	-1.93236e-07
2	0	0	1	0	2824.81	2.29207	2.2915	-0.000204213	1	2.76138e-05	14	-4.67955e-07
2	0	0	1	0	2909.83	2.20705	2.20649	-0.000341497	1	3.09859e-06	14	-7.53508e-07
2	0	0	1	0	2994.85	2.12203	2.12149	-0.000499384	1	-3.38414e-05	14	-1.05944e-06
2	0	0	1	0	3079.87	2.03701	2.03648	-0.00069209	1	-8.5857e-05	14	-1.40943e-06
2	0	0	0	0	3164.89	1.95199	1.95148	-0.000788311	1	-0.000150868	14	-1.53838e-06
2	0	0	1	0	3249.91	1.86697	1.8664	-0.000853484	1	-0.000222294	14	-1.59294e-06
2	0	0	1	0	3334.93	1.78195	1.78144	-0.00090718	1	-0.000298403	14	-1.61609e-06
2	0	0	1	0	3419.95	1.69692	1.69643	-0.000984302	1	-0.000380141	14	-1.6698e-06
2	0	0	1	0	3504.97	1.6119	1.61139	-0.00107503	1	-0.000468903	14	-1.73229e-06
2	0	0	1	0	3590	1.52688	1.52639	-0.00120801	1	-0.000567016	14	-1.8439e-06
2	0	0	1	0	3675.02	1.44186	1.44139	-0.00141129	1	-0.000679266	14	-2.03422e-06
2	0	0	1	0	3760.04	1.35684	1.35631	-0.00172293	1	-0.00081263	14	-2.33683e-06
2	0	0	0	0	3845.06	1.27182	1.27133	-0.00238783	1	-0.000985511	14	-3.03571e-06
2	0	0	1	0	3930.08	1.1868	1.1863	-0.00414659	1	-0.00125256	14	-4.9191e-06
2	0	0	1	0	4015.1	1.10178	1.10128	-0.00718122	1	-0.00173374	14	-7.90855e-06
2	0	0	1	0	4100.12	1.01676	1.01625	-0.00937076	1	-0.00244978	14	-9.52302e-06
2	0	0	1	0	4185.14	0.931735	0.931274	-0.0102698	1	-0.00329272	14	-9.564e-06
2	0	0	1	0	4270.16	0.846714	0.846243	-0.0109	1	-0.00419058	14	-9.22404e-06
2	0	0	1	0	4355.18	0.761693	0.761204	-0.0124958	1	-0.00517847	13	-9.51189e-06
2	0	0	1	0	4440.21	0.676672	0.67621	-0.0155347	1	-0.00635647	13	-1.05047e-05
2	0	0	1	0	4525.23	0.591651	0.59116	-0.0207574	1	-0.00788839	13	-1.2271e-05
2	0	0	1	0	4610.25	0.50663	0.506253	-0.0266317	1	-0.00991167	13	-1.34824e-05
2	0	0	1	0	4695.27	0.421609	0.421174	-0.0298393	1	-0.0123348	13	-1.25675e-05
2	0	0	1	0	4780.29	0.336588	0.336152	-0.0325488	1	-0.0149766	13	-1.09413e-05
2	0	0	1	0	4865.31	0.251567	0.251174	-0.0382203	1	-0.0179632	13	-9.59995e-06
2	0	0	1	0	4950.33	0.166545	0.166142	-0.0475975	1	-0.0215858	13	-7.90794e-06
2	0	0	1	0	5035.35	0.0815244	0.0811337	-0.0824462	1	-0.0266464	13	-6.68916e-06
2	0	0	1	0	5119.47	0.0225098	0.0221192	-0.116203	1	-0.0361176	12	-2.57033e-06
2	0	0	1	0	5204.5	0.107531	0.107126	-0.0219571	1	-0.0414285	13	-2.35217e-06
2	1	0	1	0	5289.52	0.192552	0.192148	0.027427	1	-0.0410604	13	5.27003e-06
2	1	0	1	0	5374.54	0.277573	0.277162	0.0770611	1	-0.0368332	13	2.13584e-05
2	1	0	1	0	5459.56	0.362594	0.362213	0.152957	1	-0.0234304	12	5.5403e-05
2	1	0	1	0	5544.58	0.447615	0.44718	0.0233695	1	-0.0188144	13	1.04504e-05
2	1	0	1	0	5629.6	0.532636	0.532209	0.0166391	1	-0.0171416	13	8.85546e-06
2	1	0	1	0	5714.62	0.617657	0.617215	0.0127082	1	-0.015901	13	7.8437e-06
2	1	0	1	0	5799.64	0.702678	0.702207	0.0100439	1	-0.0149325	13	7.05288e-06
2	1	0	1	0	5884.66	0.787699	0.787213	0.00833148	1	-0.0141557	13	6.55865e-06
2	1	0	1	0	5969.69	0.872721	0.872277	0.00749799	1	-0.0134749	13	6.54032e-06
2	1	0	1	0	6054.71	0.957742	0.957254	0.00676456	1	-0.0128641	13	6.4754e-06
2	1	0	1	0	6139.73	1.04276	1.04224	0.00593285	1	-0.0123164	13	6.18348e-06
2	1	0	1	0	6224.75	1.12778	1.12729	0.00486393	1	-0.0118519	13	5.48304e-06
2	1	0	1	0	6309.77	1.2128	1.21227	0.00364381	1	-0.0114841	14	4.41727e-06
2	1	0	1	0	6394.79	1.29783	1.29735	0.00233212	1	-0.0112262	14	3.02559e-06
2	1	0	1	0	6479.81	1.38285	1.38236	0.00137189	1	-0.0110688	14	1.89644e-06
2	1	0	1	0	6564.83	1.46787	1.46736	0.000929439	1	-0.0109703	14	1.36382e-06
2	1	0	0	1	6648.55	1.44846	1.44793	0.000210705	2	-0.0109197	14	3.05086e-07
2	0	0	1	1	6733.58	1.36344	1.36296	-0.000308711	2	-0.0109259	14	-4.20762e-07
2	0	0	1	1	6818.6	1.27842	1.27792	-0.00175004	2	-0.0110056	14	-2.23641e-06
2	0	0	1	1	6903.62	1.1934	1.19287	-0.00408766	2	-0.0112601	14	-4.87605e-06
2	0	0	1	1	6988.64	1.10838	1.10788	-0.00539135	2	-0.0116743	14	-5.97294e-06
2	0	0	1	1	7073.66	1.02336	1.02287	-0.00640923	2	-0.0121795	14	-6.55583e-06
2	0	0	1	1	7158.68	0.938337	0.937841	-0.00732422	2	-0.0127704	14	-6.86895e-06
2	0	0	1	1	7243.7	0.853316	0.85283	-0.00808243	2	-0.0134307	14	-6.89294e-06
2	0	0	1	1	7328.72	0.768295	0.767793	-0.00908384	2	-0.0141678	14	-6.97451e-06
2	0	0	1	1	7413.74	0.683274	0.68282	-0.0107133	2	-0.0150043	14	-7.31523e-06
2	0	0	0	1	7498.77	0.598253	0.597817	-0.0134278	2	-0.0160348	13	-8.02737e-06
2	0	0	1	1	7583.79	0.513231	0.512748	-0.0170535	2	-0.0173273	13	-8.74417e-06
2	0	0	1	1	7668.81	0.42821	0.427842	-0.0219912	2	-0.0189855	13	-9.40874e-06
2	0	0	1	1	7753.83	0.343189	0.342765	-0.0284664	2	-0.0211283	13	-9.75731e-06
2	0	0	1	1	7838.85	0.258168	0.257744	-0.0347406	2	-0.0238329	13	-8.95418e-06
2	0	0	1	1	7923.87	0.173147	0.172747	-0.0365299	2	-0.0268341	13	-6.31044e-06
2	0	0	1	1	8008.89	0.088126	0.0877295	-0.0826654	2	-0.0315955	13	-7.25219e-06
2	0	0	1	1	8092.61	0.0155082	0.0150992	-0.110606	2	-0.0403112	12	-1.67006e-06
2	0	0	1	1	8177.73	0.100629	0.100259	-0.0223825	2	-0.045434	13	-2.24405e-06
2	1	0	1	1	8262.76	0.18565	0.185242	0.0258018	2	-0.0451543	13	4.77958e-06
2	1	0	1	1	8347.78	0.270671	0.270272	0.0777568	2	-0.0409617	13	2.10155e-05
2	1	0	1	1	8432.8	0.355692	0.355237	0.182181	2	-0.030173	12	6.47175e-05
2	1	0	1	1	8517.82	0.440714	0.440254	0.0305305	2	-0.0213785	13	1.34412e-05
2	1	0	1	1	8602.84	0.525735	0.525317	0.0176524	2	-0.0195098	13	9.27313e-06
2	1	0	1	1	8687.86	0.610756	0.610337	0.0132489	2	-0.0182048	13	8.08631e-06
2	1	0	1	1	8772.88	0.695777	0.695367	0.0104641	2	-0.0171981	13	7.27641e-06
2	1	0	0	1	8857.9	0.780798	0.780311	0.00848117	2	-0.0163981	13	6.61795e-06
2	1	0	1	1	8942.92	0.865819	0.865361	0.00761933	2	-0.0157088	13	6.59347e-06
2	1	0	1	1	9027.95	0.95084	0.950335	0.00685079	2	-0.0150923	13	6.51055e-06
2	1	0	1	1	9112.97	1.03586	1.0354	0.00602016	2	-0.0145392	13	6.23328e-06
2	1	0	1	1	9197.99	1.12088	1.1204	0.0049458	2	-0.0140685	13	5.54127e-06
2	1	0	0	1	9283.01	1.2059	1.20547	0.00372192	2	-0.0136953	14	4.48665e-06
2	1	0	1	1	9368.03	1.29092	1.29045	0.0024092	2	-0.0134317	14	3.10895e-06
2	1	0	1	1	9453.05	1.37595	1.37538	0.00143339	2	-0.0132687	14	1.97146e-06
2	1	0	1	1	9538.07	1.46097	1.46052	0.000970104	2	-0.0131663	14	1.41686e-06
2	1	0	1	0	9621.69	1.45546	1.45493	0.000292173	3	-0.0131084	14	4.2509e-07
2	0	0	1	0	9706.71	1.37044	1.36992	-0.000213026	3	-0.0131075	14	-2.91828e-07
2	0	0	1	0	9791.74	1.28542	1.28501	-0.00155954	3	-0.0131749	14	-2.00402e-06
2	0	0	1	0	9876.76	1.2004	1.19983	-0.00385894	3	-0.0134101	14	-4.63008e-06
2	0	0	1	0	9961.78	1.11538	1.11482	-0.0051732	3	-0.0138043	14	-5.76721e-06
2	0	0	1	0	10046.8	1.03036	1.02988	-0.00614341	3	-0.0142876	14	-6.32698e-06
2	0	0	1	0	10131.8	0.945339	0.944842	-0.00706742	3	-0.0148551	14	-6.67759e-06
2	0	0	1	0	10216.8	0.860317	0.859788	-0.00780742	3	-0.0154909	14	-6.71273e-06
2	0	0	1	0	10301.9	0.775296	0.774838	-0.00873164	3	-0.0161998	14	-6.76561e-06
2	0	0	1	0	10386.9	0.690275	0.689752	-0.0102221	3	-0.0169999	14	-7.05069e-06
2	0	0	1	0	10471.9	0.605254	0.604819	-0.0127226	3	-0.0179774	13	-7.69488e-06
2	0	0	1	0	10556.9	0.520233	0.519809	-0.0158195	3	-0.0191902	13	-8.22312e-06
2	0	0	1	0	10641.9	0.435212	0.434745	-0.0199836	3	-0.0207093	13	-8.68779e-06
2	0	0	1	0	10727	0.350191	0.349839	-0.0250079	3	-0.0226144	13	-8.74875e-06
2	0	0	1	0	10812	0.26517	0.26473	-0.0294348	3	-0.0249364	13	-7.79229e-06
2	0	0	1	0	10897	0.180149	0.179693	-0.0378813	3	-0.0277379	13	-6.80702e-06
2	0	0	1	0	10982	0.0951279	0.0947402	-0.0731859	3	-0.0320528	13	-6.93365e-06
2	0	0	1	0	11066.9	0.0103067	0.00996923	-0.116136	3	-0.0402548	12	-1.15779e-06
2	0	0	1	0	11150.8	0.0935275	0.0931289	-0.0282312	3	-0.0457876	13	-2.62914e-06
2	1	0	1	0	11235.9	0.178648	0.178281	0.0200205	3	-0.045994	13	3.56928e-06
2	1	0	1	0	11320.9	0.26367	0.263254	0.0625865	3	-0.0425147	13	1.64761e-05
2	1	0	1	0	11405.9	0.348691	0.348259	0.150034	3	-0.0343276	12	5.22508e-05
2	1	0	1	0	11491	0.433712	0.433302	0.0493357	3	-0.023433	12	2.13773e-05
2	1	0	1	0	11576	0.518733	0.518291	0.0185673	3	-0.0211675	13	9.62326e-06
2	1	0	1	0	11661	0.603754	0.603368	0.0137832	3	-0.019807	13	8.31634e-06
2	1	0	1	0	11746	0.688775	0.68832	0.0107461	3	-0.0187663	13	7.39674e-06
2	1	0	0	0	11831	0.773796	0.77332	0.00865919	3	-0.0179458	13	6.69633e-06
2	1	0	1	0	11916.1	0.858817	0.85835	0.0077454	3	-0.0172465	13	6.64827e-06
2	1	0	1	0	12001.1	0.943838	0.943342	0.00694315	3	-0.0166203	13	6.54977e-06
2	1	0	1	0	12086.1	1.02886	1.02842	0.00617344	3	-0.0160572	13	6.34889e-06
2	1	0	1	0	12171.1	1.11388	1.11337	0.00506334	3	-0.0155758	13	5.63738e-06
2	1	0	0	0	12256.1	1.1989	1.19839	0.00383869	3	-0.0151931	14	4.60023e-06
2	1	0	1	0	12341.2	1.28392	1.28345	0.00251253	3	-0.0149208	14	3.22471e-06
2	1	0	1	0	12426.2	1.36894	1.36848	0.00150054	3	-0.0147512	14	2.05347e-06
2	1	0	1	0	12511.2	1.45396	1.45347	0.00100552	3	-0.014645	14	1.4615e-06
2	1	0	1	1	12594.8	1.53759	1.53711	0.00082485	3	-0.0145671	14	1.26788e-06
2	1	0	1	1	12679.9	1.62261	1.62208	0.000771601	3	-0.0144972	14	1.2516e-06
2	1	0	1	1	12764.9	1.70763	1.70712	0.000768645	3	-0.0144293	14	1.31217e-06
2	1	0	1	1	12849.9	1.79265	1.79215	0.000786201	3	-0.0143607	14	1.40899e-06
2	1	0	1	1	12934.9	1.87767	1.87719	0.000801005	3	-0.0142906	14	1.50364e-06
2	1	0	1	1	13019.9	1.96269	1.96218	0.000808364	3	-0.0142197	14	1.58615e-06
2	1	0	1	1	13105	2.04771	2.04716	0.000819936	3	-0.0141481	14	1.67854e-06
2	1	0	1	1	13190	2.13273	2.13223	0.000856809	3	-0.0140746	14	1.82691e-06
2	1	0	1	1	13275	2.21775	2.2172	0.000921027	3	-0.0139967	14	2.0421e-06
2	1	0	1	1	13360	2.30277	2.30226	0.000986979	3	-0.0139131	14	2.27228e-06
2	1	0	1	1	13445	2.3878	2.3873	0.00103981	3	-0.0138244	14	2.48234e-06
2	1	0	1	1	13530.1	2.47282	2.47234	0.00107525	3	-0.0137322	14	2.65838e-06
2	1	0	1	1	13615.1	2.55784	2.55724	0.00110331	3	-0.0136375	14	2.82143e-06
2	1	0	1	1	13700.1	2.64286	2.64233	0.00113293	3	-0.0135403	14	2.99358e-06
2	1	0	1	1	13774	2.71673	2.71625	0.00115879	3	-0.013454	14	3.14756e-06