File: EC-MS Data/Graphite vs Li in EC-Free + CO2/Raw EC/EC098_EC_Free_CO2_03_OCV_C01.mpt
EC-Lab ASCII FILE
Nb header lines : 46

Open Circuit Voltage

Run on channel : 1 (SN 39219)
User :
CE vs. WE compliance from -10 V to 10 V
Electrode connection : standard
Ewe ctrl range : min = 0.00 V, max = 5.00 V
Safety Limits :
	Do not start on E overload
Acquisition started on : 10/18/2022 11:10:26.788
Technique started on : 10/18/2022 15:00:00.797
Loaded Setting File :  D:\EC-Lab\Faraday\Graphite vs Li\EC096\EC096 LP57 + CO2.mps
Saved on :
	File : EC098_EC_Free_CO2_03_OCV_C01.mpr
	Directory : D:\EC-Lab\Faraday\Graphite vs Li\EC098\
	Host : 192.109.209.130
Device : SP-150 (SN 1485)
Address : 192.109.209.135
EC-Lab for windows v11.36 (software)
Internet server v11.36 (firmware)
Command interpretor v11.36 (firmware)
Electrode material : Au/Pd
Initial state :
Electrolyte : NaCl (0.2M)
Comments : Fe(CN)63-/Fe(CN)64- 5.10-3 M
Reference electrode : SCE Saturated Calomel Electrode (0.241 V)
Electrode surface area : 0.001 cm²
Characteristic mass : 0.001 g
Equivalent Weight : 0.000 g/eq.
Density : 0.000 g/cm3
Text export
   Mode : Standard
   Time format : Elapsed
Cycle Definition : Charge/Discharge alternance
tR (h:m:s)          1:00:0.0000
dER/dt (mV/h)       0.0
record              Ewe
dER (mV)            0.00
dtR (s)             10.0000
E range min (V)     0.000
E range max (V)     5.000

mode	error	time/s	Ewe/V
3	0	13774	2.71321
3	0	13784	2.57278
3	0	13794	2.51349
3	0	13804	2.47536
3	0	13814	2.44748
3	0	13824	2.42555
3	0	13834	2.40773
3	0	13844	2.39253
3	0	13854	2.37943
3	0	13864	2.36786
3	0	13874	2.35759
3	0	13884	2.34844
3	0	13894	2.34014
3	0	13904	2.33233
3	0	13914	2.32527
3	0	13924	2.31875
3	0	13934	2.31268
3	0	13944	2.30703
3	0	13954	2.30174
3	0	13964	2.2967
3	0	13974	2.29212
3	0	13984	2.28771
3	0	13994	2.28324
3	0	14004	2.27931
3	0	14014	2.27547
3	0	14024	2.27171
3	0	14034	2.26831
3	0	14044	2.26506
3	0	14054	2.26191
3	0	14064	2.2589
3	0	14074	2.25582
3	0	14084	2.25303
3	0	14094	2.25046
3	0	14104	2.24771
3	0	14114	2.24522
3	0	14124	2.24282
3	0	14134	2.2406
3	0	14144	2.23805
3	0	14154	2.23614
3	0	14164	2.23396
3	0	14174	2.2319
3	0	14184	2.22983
3	0	14194	2.22798
3	0	14204	2.22623
3	0	14214	2.22445
3	0	14224	2.22248
3	0	14234	2.22098
3	0	14244	2.21935
3	0	14254	2.21771
3	0	14264	2.21613
3	0	14274	2.21488
3	0	14284	2.21339
3	0	14294	2.21196
3	0	14304	2.21066
3	0	14314	2.20931
3	0	14324	2.20811
3	0	14334	2.20698
3	0	14344	2.20559
3	0	14354	2.20448
3	0	14364	2.20329
3	0	14374	2.20232
3	0	14384	2.20106
3	0	14394	2.20009
3	0	14404	2.19913
3	0	14404.2	2.19915