File: EC-MS Data/Graphite vs Li in EC-Free + CO2/Raw EC/EC098_EC_Free_CO2_01_OCV_C01.mpt
EC-Lab ASCII FILE
Nb header lines : 46

Open Circuit Voltage

Run on channel : 1 (SN 39219)
User :
CE vs. WE compliance from -10 V to 10 V
Electrode connection : standard
Ewe ctrl range : min = 0.00 V, max = 5.00 V
Safety Limits :
	Do not start on E overload
Acquisition started on : 10/18/2022 11:10:26.788
Technique started on : 10/18/2022 11:10:26.788
Loaded Setting File :  D:\EC-Lab\Faraday\Graphite vs Li\EC096\EC096 LP57 + CO2.mps
Saved on :
	File : EC098_EC_Free_CO2_01_OCV_C01.mpr
	Directory : D:\EC-Lab\Faraday\Graphite vs Li\EC098\
	Host : 192.109.209.130
Device : SP-150 (SN 1485)
Address : 192.109.209.135
EC-Lab for windows v11.36 (software)
Internet server v11.36 (firmware)
Command interpretor v11.36 (firmware)
Electrode material : Au/Pd
Initial state :
Electrolyte : NaCl (0.2M)
Comments : Fe(CN)63-/Fe(CN)64- 5.10-3 M
Reference electrode : SCE Saturated Calomel Electrode (0.241 V)
Electrode surface area : 0.001 cm²
Characteristic mass : 0.001 g
Equivalent Weight : 0.000 g/eq.
Density : 0.000 g/cm3
Text export
   Mode : Standard
   Time format : Elapsed
Cycle Definition : Charge/Discharge alternance
tR (h:m:s)          1:00:0.0000
dER/dt (mV/h)       0.0
record              Ewe
dER (mV)            0.00
dtR (s)             10.0000
E range min (V)     0.000
E range max (V)     5.000

mode	error	time/s	Ewe/V
3	0	0.000000000000000E+000	2.73525
3	0	10	2.73517
3	0	20	2.73517
3	0	30	2.73507
3	0	40	2.73509
3	0	50	2.73496
3	0	60	2.73496
3	0	70	2.73498
3	0	80	2.73484
3	0	90	2.73494
3	0	100	2.735
3	0	110	2.735
3	0	120	2.73494
3	0	130	2.73509
3	0	140	2.73513
3	0	150	2.7354
3	0	160	2.73551
3	0	170	2.73559
3	0	180	2.73567
3	0	190	2.73597
3	0	200	2.73603
3	0	210	2.73626
3	0	220	2.73628
3	0	230	2.73649
3	0	240	2.73658
3	0	250	2.73685
3	0	260	2.7371
3	0	270	2.73727
3	0	280	2.73731
3	0	290	2.73773
3	0	300	2.73792
3	0	310	2.73801
3	0	320	2.73826
3	0	330	2.73859
3	0	340	2.73866
3	0	350	2.73887
3	0	360	2.73905
3	0	370	2.73933
3	0	380	2.73947
3	0	390	2.7396
3	0	400	2.73985
3	0	410	2.73994
3	0	420	2.74019
3	0	430	2.74027
3	0	440	2.74052
3	0	450	2.74063
3	0	460	2.74084
3	0	470	2.74086
3	0	480	2.74101
3	0	490	2.74122
3	0	500	2.74141
3	0	510	2.74147
3	0	520	2.74162
3	0	530	2.74178
3	0	540	2.74187
3	0	550	2.74195
3	0	560	2.7422
3	0	570	2.74218
3	0	580	2.74244
3	0	590	2.74237
3	0	600	2.74252
3	0	610	2.74277
3	0	620	2.74271
3	0	630	2.74296
3	0	640	2.74311
3	0	650	2.74307
3	0	660	2.7433
3	0	670	2.74355
3	0	680	2.74361
3	0	690	2.7437
3	0	700	2.7438
3	0	710	2.74414
3	0	720	2.74433
3	0	730	2.74433
3	0	740	2.74449
3	0	750	2.74475
3	0	760	2.74472
3	0	770	2.74496
3	0	780	2.74495
3	0	790	2.7451
3	0	800	2.74519
3	0	810	2.74525
3	0	820	2.74531
3	0	830	2.74548
3	0	840	2.74552
3	0	850	2.74577
3	0	860	2.74571
3	0	870	2.74575
3	0	880	2.74586
3	0	890	2.74592
3	0	900	2.74617
3	0	910	2.74626
3	0	920	2.74638
3	0	930	2.74636
3	0	940	2.74638
3	0	950	2.74653
3	0	960	2.74651
3	0	970	2.74661
3	0	980	2.74659
3	0	990	2.74666
3	0	1000	2.74691
3	0	1010	2.74701
3	0	1020	2.74697
3	0	1030	2.74712
3	0	1040	2.74708
3	0	1050	2.74722
3	0	1060	2.74727
3	0	1070	2.74758
3	0	1080	2.74764
3	0	1090	2.74802
3	0	1100	2.74813
3	0	1110	2.74821
3	0	1120	2.74821
3	0	1130	2.7484
3	0	1140	2.74886
3	0	1150	2.74894
3	0	1160	2.74913
3	0	1170	2.74932
3	0	1180	2.74932
3	0	1190	2.74951
3	0	1200	2.74957
3	0	1210	2.7496
3	0	1220	2.74978
3	0	1230	2.74985
3	0	1240	2.75006
3	0	1250	2.75033
3	0	1260	2.75058
3	0	1270	2.75088
3	0	1280	2.75096
3	0	1290	2.75119
3	0	1300	2.75148
3	0	1310	2.75157
3	0	1320	2.75174
3	0	1330	2.75191
3	0	1340	2.75205
3	0	1350	2.75224
3	0	1360	2.75241
3	0	1370	2.75256
3	0	1380	2.75277
3	0	1390	2.75295
3	0	1400	2.7531
3	0	1410	2.75344
3	0	1420	2.7534
3	0	1430	2.75369
3	0	1440	2.75394
3	0	1450	2.75398
3	0	1460	2.75419
3	0	1470	2.75447
3	0	1480	2.75463
3	0	1490	2.75491
3	0	1500	2.75505
3	0	1510	2.75545
3	0	1520	2.75568
3	0	1530	2.756
3	0	1540	2.75632
3	0	1550	2.75661
3	0	1560	2.75694
3	0	1570	2.7573
3	0	1580	2.75751
3	0	1590	2.75759
3	0	1600	2.75797
3	0	1610	2.75818
3	0	1620	2.7581
3	0	1630	2.75843
3	0	1640	2.75841
3	0	1650	2.75854
3	0	1660	2.75852
3	0	1670	2.75869
3	0	1680	2.75881
3	0	1690	2.75896
3	0	1700	2.75919
3	0	1710	2.75904
3	0	1720	2.7585
3	0	1730	2.75785
3	0	1740	2.7572
3	0	1750	2.7569
3	0	1760	2.75648
3	0	1770	2.75617
3	0	1780	2.75575
3	0	1790	2.75522
3	0	1800	2.75449
3	0	1810	2.75373
3	0	1820	2.7526
3	0	1830	2.75174
3	0	1840	2.75079
3	0	1850	2.74978
3	0	1860	2.74895
3	0	1870	2.74781
3	0	1880	2.74684
3	0	1890	2.74594
3	0	1900	2.74496
3	0	1910	2.74397
3	0	1920	2.74273
3	0	1930	2.7421
3	0	1940	2.74113
3	0	1950	2.74015
3	0	1960	2.73924
3	0	1970	2.73849
3	0	1980	2.73777
3	0	1990	2.73704
3	0	2000	2.73618
3	0	2010	2.73546
3	0	2020	2.73471
3	0	2030	2.73395
3	0	2040	2.73341
3	0	2050	2.73244
3	0	2060	2.73211
3	0	2070	2.73124
3	0	2080	2.73047
3	0	2090	2.72986
3	0	2100	2.72929
3	0	2110	2.7287
3	0	2120	2.72814
3	0	2130	2.72744
3	0	2140	2.72707
3	0	2150	2.72654
3	0	2160	2.72599
3	0	2170	2.72555
3	0	2180	2.72495
3	0	2190	2.72455
3	0	2200	2.72425
3	0	2210	2.72362
3	0	2220	2.72318
3	0	2230	2.72289
3	0	2240	2.72241
3	0	2250	2.72201
3	0	2260	2.72154
3	0	2270	2.72125
3	0	2280	2.72085
3	0	2290	2.72056
3	0	2300	2.71999
3	0	2310	2.71957
3	0	2320	2.7193
3	0	2330	2.71888
3	0	2340	2.71862
3	0	2350	2.71831
3	0	2360	2.71808
3	0	2370	2.71774
3	0	2380	2.71741
3	0	2390	2.71714
3	0	2400	2.71697